"N-GQD_CA"
"Wavelength nm."	"Abs."
200.00	3.0681
201.00	3.0340
202.00	3.1423
203.00	3.2881
204.00	3.0653
205.00	3.0018
206.00	3.0783
207.00	3.1143
208.00	3.0804
209.00	3.0505
210.00	3.0556
211.00	3.0404
212.00	3.0336
213.00	3.0518
214.00	3.0092
215.00	2.9928
216.00	2.9945
217.00	2.9951
218.00	2.9628
219.00	2.9610
220.00	2.9295
221.00	2.9084
222.00	2.8609
223.00	2.8474
224.00	2.8152
225.00	2.7984
226.00	2.7874
227.00	2.7756
228.00	2.7650
229.00	2.7842
230.00	2.7623
231.00	2.7702
232.00	2.7761
233.00	2.7966
234.00	2.7935
235.00	2.7911
236.00	2.7940
237.00	2.8006
238.00	2.8028
239.00	2.7770
240.00	2.7878
241.00	2.7711
242.00	2.7497
243.00	2.7370
244.00	2.6940
245.00	2.6550
246.00	2.6112
247.00	2.5446
248.00	2.4733
249.00	2.3758
250.00	2.2567
251.00	2.1287
252.00	1.9786
253.00	1.8269
254.00	1.6724
255.00	1.5211
256.00	1.3659
257.00	1.2242
258.00	1.0892
259.00	0.9780
260.00	0.8773
261.00	0.7919
262.00	0.7205
263.00	0.6595
264.00	0.6104
265.00	0.5682
266.00	0.5329
267.00	0.5045
268.00	0.4793
269.00	0.4585
270.00	0.4405
271.00	0.4253
272.00	0.4112
273.00	0.3994
274.00	0.3896
275.00	0.3809
276.00	0.3732
277.00	0.3664
278.00	0.3607
279.00	0.3555
280.00	0.3519
281.00	0.3489
282.00	0.3471
283.00	0.3463
284.00	0.3466
285.00	0.3481
286.00	0.3509
287.00	0.3545
288.00	0.3594
289.00	0.3657
290.00	0.3730
291.00	0.3813
292.00	0.3908
293.00	0.4019
294.00	0.4129
295.00	0.4259
296.00	0.4393
297.00	0.4547
298.00	0.4707
299.00	0.4877
300.00	0.5067
301.00	0.5273
302.00	0.5492
303.00	0.5718
304.00	0.5969
305.00	0.6228
306.00	0.6510
307.00	0.6807
308.00	0.7098
309.00	0.7417
310.00	0.7752
311.00	0.8062
312.00	0.8397
313.00	0.8775
314.00	0.9132
315.00	0.9517
316.00	0.9877
317.00	1.0257
318.00	1.0642
319.00	1.1095
320.00	1.1460
321.00	1.1880
322.00	1.2303
323.00	1.2703
324.00	1.3118
325.00	1.3558
326.00	1.4004
327.00	1.4390
328.00	1.4841
329.00	1.5319
330.00	1.5434
331.00	1.6044
332.00	1.6360
333.00	1.6617
334.00	1.7050
335.00	1.7427
336.00	1.7674
337.00	1.8070
338.00	1.8282
339.00	1.8559
340.00	1.8801
341.00	1.8573
342.00	1.8843
343.00	1.8976
344.00	1.9081
345.00	1.9172
346.00	1.9238
347.00	1.9140
348.00	1.9220
349.00	1.9178
350.00	1.9164
351.00	1.9220
352.00	1.8991
353.00	1.8913
354.00	1.8845
355.00	1.8732
356.00	1.8562
357.00	1.8330
358.00	1.8114
359.00	1.8054
360.00	1.7869
361.00	1.7527
362.00	1.7265
363.00	1.6958
364.00	1.6671
365.00	1.6152
366.00	1.5715
367.00	1.5358
368.00	1.4963
369.00	1.4555
370.00	1.4137
371.00	1.3739
372.00	1.3304
373.00	1.2863
374.00	1.2409
375.00	1.1971
376.00	1.1538
377.00	1.1082
378.00	1.0637
379.00	1.0182
380.00	0.9736
381.00	0.9296
382.00	0.8868
383.00	0.8445
384.00	0.8029
385.00	0.7595
386.00	0.7160
387.00	0.6738
388.00	0.6335
389.00	0.5952
390.00	0.5583
391.00	0.5229
392.00	0.4891
393.00	0.4547
394.00	0.4231
395.00	0.3941
396.00	0.3674
397.00	0.3428
398.00	0.3188
399.00	0.2966
400.00	0.2754
401.00	0.2562
402.00	0.2395
403.00	0.2239
404.00	0.2096
405.00	0.1972
406.00	0.1857
407.00	0.1751
408.00	0.1656
409.00	0.1572
410.00	0.1496
411.00	0.1430
412.00	0.1375
413.00	0.1324
414.00	0.1278
415.00	0.1237
416.00	0.1206
417.00	0.1170
418.00	0.1138
419.00	0.1113
420.00	0.1087
421.00	0.1064
422.00	0.1044
423.00	0.1026
424.00	0.1009
425.00	0.0994
426.00	0.0979
427.00	0.0965
428.00	0.0952
429.00	0.0939
430.00	0.0926
431.00	0.0914
432.00	0.0902
433.00	0.0891
434.00	0.0879
435.00	0.0867
436.00	0.0854
437.00	0.0841
438.00	0.0829
439.00	0.0816
440.00	0.0804
441.00	0.0792
442.00	0.0780
443.00	0.0767
444.00	0.0755
445.00	0.0744
446.00	0.0731
447.00	0.0720
448.00	0.0709
449.00	0.0698
450.00	0.0687
451.00	0.0676
452.00	0.0666
453.00	0.0656
454.00	0.0646
455.00	0.0636
456.00	0.0627
457.00	0.0617
458.00	0.0607
459.00	0.0597
460.00	0.0589
461.00	0.0581
462.00	0.0572
463.00	0.0563
464.00	0.0553
465.00	0.0544
466.00	0.0536
467.00	0.0527
468.00	0.0519
469.00	0.0511
470.00	0.0502
471.00	0.0494
472.00	0.0486
473.00	0.0478
474.00	0.0470
475.00	0.0462
476.00	0.0455
477.00	0.0447
478.00	0.0439
479.00	0.0431
480.00	0.0424
481.00	0.0417
482.00	0.0410
483.00	0.0403
484.00	0.0396
485.00	0.0388
486.00	0.0381
487.00	0.0375
488.00	0.0368
489.00	0.0362
490.00	0.0356
491.00	0.0350
492.00	0.0344
493.00	0.0338
494.00	0.0332
495.00	0.0327
496.00	0.0321
497.00	0.0316
498.00	0.0311
499.00	0.0307
500.00	0.0302
501.00	0.0297
502.00	0.0293
503.00	0.0289
504.00	0.0284
505.00	0.0281
506.00	0.0277
507.00	0.0273
508.00	0.0269
509.00	0.0266
510.00	0.0262
511.00	0.0258
512.00	0.0255
513.00	0.0252
514.00	0.0249
515.00	0.0246
516.00	0.0243
517.00	0.0240
518.00	0.0237
519.00	0.0234
520.00	0.0231
521.00	0.0228
522.00	0.0225
523.00	0.0222
524.00	0.0220
525.00	0.0217
526.00	0.0214
527.00	0.0211
528.00	0.0209
529.00	0.0206
530.00	0.0203
531.00	0.0201
532.00	0.0198
533.00	0.0195
534.00	0.0192
535.00	0.0190
536.00	0.0187
537.00	0.0185
538.00	0.0182
539.00	0.0179
540.00	0.0177
541.00	0.0174
542.00	0.0172
543.00	0.0170
544.00	0.0168
545.00	0.0166
546.00	0.0164
547.00	0.0162
548.00	0.0160
549.00	0.0158
550.00	0.0156
551.00	0.0154
552.00	0.0152
553.00	0.0151
554.00	0.0149
555.00	0.0148
556.00	0.0145
557.00	0.0143
558.00	0.0142
559.00	0.0140
560.00	0.0139
561.00	0.0137
562.00	0.0135
563.00	0.0134
564.00	0.0133
565.00	0.0132
566.00	0.0130
567.00	0.0128
568.00	0.0127
569.00	0.0125
570.00	0.0124
571.00	0.0122
572.00	0.0121
573.00	0.0121
574.00	0.0119
575.00	0.0117
576.00	0.0116
577.00	0.0115
578.00	0.0114
579.00	0.0113
580.00	0.0111
581.00	0.0110
582.00	0.0109
583.00	0.0107
584.00	0.0106
585.00	0.0105
586.00	0.0104
587.00	0.0103
588.00	0.0101
589.00	0.0100
590.00	0.0099
591.00	0.0098
592.00	0.0097
593.00	0.0096
594.00	0.0095
595.00	0.0094
596.00	0.0093
597.00	0.0092
598.00	0.0091
599.00	0.0090
600.00	0.0089
601.00	0.0088
602.00	0.0088
603.00	0.0087
604.00	0.0086
605.00	0.0085
606.00	0.0084
607.00	0.0083
608.00	0.0083
609.00	0.0082
610.00	0.0081
611.00	0.0081
612.00	0.0080
613.00	0.0079
614.00	0.0079
615.00	0.0078
616.00	0.0077
617.00	0.0077
618.00	0.0076
619.00	0.0076
620.00	0.0075
621.00	0.0074
622.00	0.0074
623.00	0.0073
624.00	0.0073
625.00	0.0072
626.00	0.0072
627.00	0.0072
628.00	0.0071
629.00	0.0070
630.00	0.0070
631.00	0.0069
632.00	0.0069
633.00	0.0069
634.00	0.0069
635.00	0.0068
636.00	0.0067
637.00	0.0066
638.00	0.0065
639.00	0.0065
640.00	0.0065
641.00	0.0065
642.00	0.0064
643.00	0.0064
644.00	0.0063
645.00	0.0063
646.00	0.0063
647.00	0.0063
648.00	0.0062
649.00	0.0062
650.00	0.0061
651.00	0.0061
652.00	0.0061
653.00	0.0060
654.00	0.0060
655.00	0.0060
656.00	0.0060
657.00	0.0059
658.00	0.0059
659.00	0.0059
660.00	0.0058
661.00	0.0058
662.00	0.0058
663.00	0.0057
664.00	0.0057
665.00	0.0057
666.00	0.0057
667.00	0.0056
668.00	0.0056
669.00	0.0056
670.00	0.0056
671.00	0.0056
672.00	0.0056
673.00	0.0056
674.00	0.0056
675.00	0.0056
676.00	0.0056
677.00	0.0056
678.00	0.0055
679.00	0.0055
680.00	0.0055
681.00	0.0055
682.00	0.0055
683.00	0.0055
684.00	0.0055
685.00	0.0055
686.00	0.0054
687.00	0.0054
688.00	0.0054
689.00	0.0054
690.00	0.0054
691.00	0.0054
692.00	0.0054
693.00	0.0054
694.00	0.0053
695.00	0.0053
696.00	0.0053
697.00	0.0052
698.00	0.0053
699.00	0.0053
700.00	0.0052
701.00	0.0052
702.00	0.0052
703.00	0.0052
704.00	0.0052
705.00	0.0052
706.00	0.0051
707.00	0.0051
708.00	0.0051
709.00	0.0051
710.00	0.0051
711.00	0.0051
712.00	0.0051
713.00	0.0051
714.00	0.0051
715.00	0.0050
716.00	0.0050
717.00	0.0050
718.00	0.0049
719.00	0.0050
720.00	0.0049
721.00	0.0049
722.00	0.0049
723.00	0.0049
724.00	0.0049
725.00	0.0048
726.00	0.0048
727.00	0.0048
728.00	0.0048
729.00	0.0048
730.00	0.0048
731.00	0.0048
732.00	0.0048
733.00	0.0047
734.00	0.0047
735.00	0.0047
736.00	0.0046
737.00	0.0047
738.00	0.0047
739.00	0.0046
740.00	0.0046
741.00	0.0046
742.00	0.0046
743.00	0.0045
744.00	0.0046
745.00	0.0046
746.00	0.0045
747.00	0.0045
748.00	0.0045
749.00	0.0044
750.00	0.0044
751.00	0.0044
752.00	0.0043
753.00	0.0043
754.00	0.0043
755.00	0.0043
756.00	0.0042
757.00	0.0042
758.00	0.0041
759.00	0.0042
760.00	0.0042
761.00	0.0042
762.00	0.0041
763.00	0.0041
764.00	0.0041
765.00	0.0041
766.00	0.0040
767.00	0.0040
768.00	0.0040
769.00	0.0040
770.00	0.0040
771.00	0.0040
772.00	0.0039
773.00	0.0039
774.00	0.0039
775.00	0.0038
776.00	0.0038
777.00	0.0038
778.00	0.0038
779.00	0.0038
780.00	0.0038
781.00	0.0038
782.00	0.0038
783.00	0.0038
784.00	0.0038
785.00	0.0037
786.00	0.0037
787.00	0.0037
788.00	0.0037
789.00	0.0037
790.00	0.0037
791.00	0.0037
792.00	0.0037
793.00	0.0037
794.00	0.0037
795.00	0.0037
796.00	0.0036
797.00	0.0036
798.00	0.0036
799.00	0.0036
800.00	0.0036
801.00	0.0036
802.00	0.0036
803.00	0.0036
804.00	0.0036
805.00	0.0036
806.00	0.0036
807.00	0.0036
808.00	0.0036
809.00	0.0036
810.00	0.0035
811.00	0.0035
812.00	0.0035
813.00	0.0036
814.00	0.0035
815.00	0.0035
816.00	0.0035
817.00	0.0035
818.00	0.0035
819.00	0.0035
820.00	0.0035
821.00	0.0035
822.00	0.0035
823.00	0.0034
824.00	0.0035
825.00	0.0035
826.00	0.0035
827.00	0.0035
828.00	0.0035
829.00	0.0035
830.00	0.0035
831.00	0.0034
832.00	0.0035
833.00	0.0034
834.00	0.0035
835.00	0.0034
836.00	0.0034
837.00	0.0034
838.00	0.0034
839.00	0.0034
840.00	0.0034
841.00	0.0034
842.00	0.0034
843.00	0.0034
844.00	0.0033
845.00	0.0033
846.00	0.0033
847.00	0.0033
848.00	0.0033
849.00	0.0033
850.00	0.0033
851.00	0.0032
852.00	0.0032
853.00	0.0032
854.00	0.0032
855.00	0.0032
856.00	0.0032
857.00	0.0031
858.00	0.0031
859.00	0.0031
860.00	0.0031
861.00	0.0031
862.00	0.0031
863.00	0.0031
864.00	0.0030
865.00	0.0030
866.00	0.0030
867.00	0.0030
868.00	0.0029
869.00	0.0029
870.00	0.0029
871.00	0.0029
872.00	0.0029
873.00	0.0029
874.00	0.0028
875.00	0.0029
876.00	0.0028
877.00	0.0028
878.00	0.0028
879.00	0.0028
880.00	0.0028
881.00	0.0028
882.00	0.0027
883.00	0.0027
884.00	0.0027
885.00	0.0028
886.00	0.0027
887.00	0.0028
888.00	0.0028
889.00	0.0028
890.00	0.0028
891.00	0.0028
892.00	0.0028
893.00	0.0028
894.00	0.0028
895.00	0.0028
896.00	0.0029
897.00	0.0029
898.00	0.0029
899.00	0.0029
900.00	0.0029
901.00	0.0030
902.00	0.0030
903.00	0.0031
904.00	0.0031
905.00	0.0031
906.00	0.0031
907.00	0.0032
908.00	0.0032
909.00	0.0033
910.00	0.0033
911.00	0.0034
912.00	0.0034
913.00	0.0034
914.00	0.0034
915.00	0.0035
916.00	0.0035
917.00	0.0035
918.00	0.0036
919.00	0.0036
920.00	0.0036
921.00	0.0037
922.00	0.0038
923.00	0.0038
924.00	0.0038
925.00	0.0039
926.00	0.0039
927.00	0.0040
928.00	0.0040
929.00	0.0040
930.00	0.0040
931.00	0.0040
932.00	0.0040
933.00	0.0040
934.00	0.0040
935.00	0.0040
936.00	0.0040
937.00	0.0040
938.00	0.0040
939.00	0.0040
940.00	0.0039
941.00	0.0039
942.00	0.0040
943.00	0.0039
944.00	0.0039
945.00	0.0039
946.00	0.0039
947.00	0.0039
948.00	0.0039
949.00	0.0039
950.00	0.0038
951.00	0.0038
952.00	0.0039
953.00	0.0039
954.00	0.0039
955.00	0.0040
956.00	0.0040
957.00	0.0041
958.00	0.0042
959.00	0.0042
960.00	0.0042
961.00	0.0041
962.00	0.0042
963.00	0.0042
964.00	0.0042
965.00	0.0041
966.00	0.0041
967.00	0.0041
968.00	0.0040
969.00	0.0040
970.00	0.0039
971.00	0.0039
972.00	0.0038
973.00	0.0038
974.00	0.0037
975.00	0.0037
976.00	0.0036
977.00	0.0036
978.00	0.0035
979.00	0.0035
980.00	0.0034
981.00	0.0033
982.00	0.0033
983.00	0.0032
984.00	0.0031
985.00	0.0031
986.00	0.0030
987.00	0.0029
988.00	0.0029
989.00	0.0028
990.00	0.0027
991.00	0.0027
992.00	0.0026
993.00	0.0026
994.00	0.0025
995.00	0.0025
996.00	0.0024
997.00	0.0023
998.00	0.0023
999.00	0.0022
1000.00	0.0022
1001.00	0.0022
1002.00	0.0021
1003.00	0.0021
1004.00	0.0020
1005.00	0.0020
1006.00	0.0020
1007.00	0.0020
1008.00	0.0019
1009.00	0.0018
1010.00	0.0018
1011.00	0.0018
1012.00	0.0018
1013.00	0.0018
1014.00	0.0018
1015.00	0.0017
1016.00	0.0017
1017.00	0.0017
1018.00	0.0016
1019.00	0.0016
1020.00	0.0016
1021.00	0.0016
1022.00	0.0016
1023.00	0.0016
1024.00	0.0016
1025.00	0.0016
1026.00	0.0016
1027.00	0.0017
1028.00	0.0017
1029.00	0.0016
1030.00	0.0016
1031.00	0.0016
1032.00	0.0016
1033.00	0.0017
1034.00	0.0018
1035.00	0.0018
1036.00	0.0018
1037.00	0.0018
1038.00	0.0018
1039.00	0.0018
1040.00	0.0018
1041.00	0.0018
1042.00	0.0018
1043.00	0.0019
1044.00	0.0018
1045.00	0.0019
1046.00	0.0019
1047.00	0.0020
1048.00	0.0020
1049.00	0.0020
1050.00	0.0020
1051.00	0.0021
1052.00	0.0021
1053.00	0.0022
1054.00	0.0021
1055.00	0.0021
1056.00	0.0021
1057.00	0.0021
1058.00	0.0022
1059.00	0.0022
1060.00	0.0022
1061.00	0.0022
1062.00	0.0022
1063.00	0.0022
1064.00	0.0023
1065.00	0.0023
1066.00	0.0023
1067.00	0.0023
1068.00	0.0024
1069.00	0.0024
1070.00	0.0025
1071.00	0.0025
1072.00	0.0025
1073.00	0.0025
1074.00	0.0026
1075.00	0.0026
1076.00	0.0026
1077.00	0.0027
1078.00	0.0027
1079.00	0.0028
1080.00	0.0027
1081.00	0.0028
1082.00	0.0030
1083.00	0.0030
1084.00	0.0030
1085.00	0.0030
1086.00	0.0030
1087.00	0.0030
1088.00	0.0031
1089.00	0.0030
1090.00	0.0029
1091.00	0.0029
1092.00	0.0030
1093.00	0.0030
1094.00	0.0029
1095.00	0.0027
1096.00	0.0028
1097.00	0.0030
1098.00	0.0029
1099.00	0.0028
1100.00	0.0028
